File: Hrishikesh Dombe/Samples/Terrain/03-Terrain_Texturing/tga_data_test.txt
0,255,0,255,
0,255,0,255,
0,255,0,255,
0,255,0,255,
65,65,65,255,
65,65,65,255,
65,65,65,255,
65,65,65,255,
65,65,65,255,
65,65,65,255,
65,65,65,255,
65,65,65,255,
65,65,65,255,
65,65,65,255,
65,65,65,255,
65,65,65,255,
65,65,65,255,
65,65,65,255,
65,65,65,255,
65,65,65,255,
65,65,65,255,
0,255,0,255,
65,65,65,255,
65,65,65,255,
65,65,65,255,
65,65,65,255,
65,65,65,255,
65,65,65,255,
65,65,65,255,
65,65,65,255,
65,65,65,255,
0,255,0,255,
65,65,65,255,
65,65,65,255,
65,65,65,255,
65,65,65,255,
65,65,65,255,
65,65,65,255,
0,255,0,255,
65,65,65,255,
65,65,65,255,
0,255,0,255,
65,65,65,255,
65,65,65,255,
65,65,65,255,
65,65,65,255,
65,65,65,255,
65,65,65,255,
65,65,65,255,
65,65,65,255,
65,65,65,255,
65,65,65,255,
65,65,65,255,
65,65,65,255,
65,65,65,255,
65,65,65,255,
65,65,65,255,
65,65,65,255,
0,255,0,255,
65,65,65,255,
65,65,65,255,
65,65,65,255,
65,65,65,255,
65,65,65,255,
65,65,65,255,
65,65,65,255,
65,65,65,255,
65,65,65,255,
65,65,65,255,
65,65,65,255,
65,65,65,255,
65,65,65,255,
65,65,65,255,
65,65,65,255,
65,65,65,255,
65,65,65,255,
65,65,65,255,
65,65,65,255,
65,65,65,255,
65,65,65,255,
65,65,65,255,
65,65,65,255,
65,65,65,255,
65,65,65,255,
65,65,65,255,
65,65,65,255,
65,65,65,255,
65,65,65,255,
65,65,65,255,
65,65,65,255,
65,65,65,255,
65,65,65,255,
65,65,65,255,
65,65,65,255,
65,65,65,255,
65,65,65,255,
65,65,65,255,
65,65,65,255,
65,65,65,255,
0,255,0,255,
65,65,65,255,
65,65,65,255,
65,65,65,255,
65,65,65,255,
65,65,65,255,
65,65,65,255,
65,65,65,255,
65,65,65,255,
65,65,65,255,
65,65,65,255,
65,65,65,255,
65,65,65,255,
65,65,65,255,
65,65,65,255,
65,65,65,255,
65,65,65,255,
65,65,65,255,
65,65,65,255,
65,65,65,255,
65,65,65,255,
65,65,65,255,
65,65,65,255,
65,65,65,255,
65,65,65,255,
65,65,65,255,
65,65,65,255,
65,65,65,255,
65,65,65,255,
65,65,65,255,
65,65,65,255,
65,65,65,255,
65,65,65,255,
65,65,65,255,
65,65,65,255,
65,65,65,255,
65,65,65,255,
65,65,65,255,
65,65,65,255,
65,65,65,255,
65,65,65,255,
65,65,65,255,
65,65,65,255,
65,65,65,255,
65,65,65,255,
65,65,65,255,
65,65,65,255,
65,65,65,255,
65,65,65,255,
65,65,65,255,
65,65,65,255,
65,65,65,255,
65,65,65,255,
65,65,65,255,
65,65,65,255,
65,65,65,255,
65,65,65,255,
65,65,65,255,
0,255,0,255,
65,65,65,255,
65,65,65,255,
65,65,65,255,
65,65,65,255,
65,65,65,255,
65,65,65,255,
65,65,65,255,
65,65,65,255,
65,65,65,255,
65,65,65,255,
65,65,65,255,
65,65,65,255,
65,65,65,255,
65,65,65,255,
65,65,65,255,
65,65,65,255,
65,65,65,255,
65,65,65,255,
65,65,65,255,
65,65,65,255,
65,65,65,255,
65,65,65,255,
65,65,65,255,
65,65,65,255,
65,65,65,255,
65,65,65,255,
65,65,65,255,
65,65,65,255,
65,65,65,255,
65,65,65,255,
65,65,65,255,
65,65,65,255,
65,65,65,255,
65,65,65,255,
65,65,65,255,
65,65,65,255,
65,65,65,255,
65,65,65,255,
65,65,65,255,
65,65,65,255,
0,255,0,255,
65,65,65,255,
65,65,65,255,
65,65,65,255,
65,65,65,255,
65,65,65,255,
65,65,65,255,
65,65,65,255,
65,65,65,255,
65,65,65,255,
65,65,65,255,
65,65,65,255,
65,65,65,255,
65,65,65,255,
65,65,65,255,
65,65,65,255,
65,65,65,255,
65,65,65,255,
65,65,65,255,
65,65,65,255,
65,65,65,255,
65,65,65,255,
65,65,65,255,
65,65,65,255,
65,65,65,255,
65,65,65,255,
65,65,65,255,
65,65,65,255,
65,65,65,255,
65,65,65,255,
65,65,65,255,
65,65,65,255,
65,65,65,255,
65,65,65,255,
65,65,65,255,
65,65,65,255,
65,65,65,255,
65,65,65,255,
65,65,65,255,
65,65,65,255,
65,65,65,255,
65,65,65,255,
65,65,65,255,
65,65,65,255,
65,65,65,255,
65,65,65,255,
65,65,65,255,
65,65,65,255,
65,65,65,255,
65,65,65,255,
65,65,65,255,
65,65,65,255,
65,65,65,255,
65,65,65,255,
65,65,65,255,
65,65,65,255,
65,65,65,255,
65,65,65,255,
0,255,0,255,
65,65,65,255,
65,65,65,255,
65,65,65,255,
65,65,65,255,
65,65,65,255,
65,65,65,255,
65,65,65,255,
65,65,65,255,
65,65,65,255,
65,65,65,255,
65,65,65,255,
65,65,65,255,
65,65,65,255,
65,65,65,255,
65,65,65,255,
65,65,65,255,
65,65,65,255,
65,65,65,255,
65,65,65,255,
65,65,65,255,
65,65,65,255,
65,65,65,255,
65,65,65,255,
65,65,65,255,
65,65,65,255,
65,65,65,255,
65,65,65,255,
65,65,65,255,
65,65,65,255,
65,65,65,255,
65,65,65,255,
65,65,65,255,
65,65,65,255,
65,65,65,255,
65,65,65,255,
65,65,65,255,
65,65,65,255,
65,65,65,255,
65,65,65,255,
65,65,65,255,
0,255,0,255,
0,255,0,255,
0,255,0,255,
0,255,0,255,